# Pbox  61670.00   3 4095  0.0     0    1.0000 0.03987     4
# VJ2.1A  pw (us)  pwr  pwrf  dres  dmf  dcyc   B1max (kHz)  Stype
# ---------------------------------------------------------------
# Pxsim 0.0616700 38.1674 0.500 180.0 0.0000000 0.0000000 0.00
# data: pw (s) B1max (Hz) status sw (Hz) T1 (s)   T2 (s) RDC (Hz)
# ---------------------------------------------------------------
# Pbox.inp data :
# ~~~~~~~~~~~~~~~~~~~~~~~~~~~Waves~~~~~~~~~~~~~~~~~~~~~~~~~~~~~~~~~~
#   shape   bw(/pw)   ofs  st  ph  fla  trev  d1  d2   d0   wrp  php
# ~~~~~~~~~~~~~~~~~~~~~~~~~~~~~~~~~~~~~~~~~~~~~~~~~~~~~~~~~~~~~~~~~~
# { rsnob 30 0 0.5 0 180 }
#
# type      = r          mod       = n          dres      = n         
# steps     = n          stepsize  = n          attn      = i         
# refofs    = n          wrap      = n          sfrq      = n         
# sucyc     = d          reps      = 2          header    = y         
# bscor     = n          pad1      = n          pad2      = n         
# bsim      = n          T1        = n          T2        = n         
# rdc       = n          dcyc      = n          sw        = n         
#
# RF Calibration Data :  ref_pwr   = 58         ref_pw90  = 11.15
# ~~~~~~~~~~~~~~~~~~~~~
###
# ------------------- Shape data ------------------
# pwtot      = 0.0616700 (total pw, s)
# power      = 3 (power level, dB)
# pwrf       = 4095 (fine power)
# B1max      = 0.0399 (B1max, kHz)
# B1rms      = 0.0168 (B1[RMS], kHz)
# nptot      = 200 (total number of steps)
# stepsize   = 308.35 (length of a single step, us)
# maxamp     = 980.2 (max amplitude)
# ------------------------------------------------- 
#      phase      amplitude   length     gate 
# ------------------------------------------------- 
        0.00      1023.00      0.0        0
     180.000       49.453      1.0        1
     180.000       49.699      1.0        1
     180.000       50.431      1.0        1
     180.000       51.643      1.0        1
     180.000       53.318      1.0        1
     180.000       55.436      1.0        1
     180.000       57.972      1.0        1
     180.000       60.893      1.0        1
     180.000       64.165      1.0        1
     180.000       67.748      1.0        1
     180.000       71.598      1.0        1
     180.000       75.667      1.0        1
     180.000       79.908      1.0        1
     180.000       84.267      1.0        1
     180.000       88.693      1.0        1
     180.000       93.132      1.0        1
     180.000       97.530      1.0        1
     180.000      101.834      1.0        1
     180.000      105.991      1.0        1
     180.000      109.951      1.0        1
     180.000      113.665      1.0        1
     180.000      117.088      1.0        1
     180.000      120.175      1.0        1
     180.000      122.888      1.0        1
     180.000      125.190      1.0        1
     180.000      127.047      1.0        1
     180.000      128.433      1.0        1
     180.000      129.321      1.0        1
     180.000      129.691      1.0        1
     180.000      129.527      1.0        1
     180.000      128.814      1.0        1
     180.000      127.543      1.0        1
     180.000      125.708      1.0        1
     180.000      123.305      1.0        1
     180.000      120.334      1.0        1
     180.000      116.794      1.0        1
     180.000      112.691      1.0        1
     180.000      108.026      1.0        1
     180.000      102.806      1.0        1
     180.000       97.036      1.0        1
     180.000       90.721      1.0        1
     180.000       83.867      1.0        1
     180.000       76.476      1.0        1
     180.000       68.552      1.0        1
     180.000       60.095      1.0        1
     180.000       51.106      1.0        1
     180.000       41.580      1.0        1
     180.000       31.513      1.0        1
     180.000       20.897      1.0        1
     180.000        9.723      1.0        1
       0.000        0.021      1.0        1
       0.000       12.349      1.0        1
       0.000       25.276      1.0        1
       0.000       38.821      1.0        1
       0.000       53.000      1.0        1
       0.000       67.834      1.0        1
       0.000       83.342      1.0        1
       0.000       99.541      1.0        1
       0.000      116.451      1.0        1
       0.000      134.087      1.0        1
       0.000      152.463      1.0        1
       0.000      171.591      1.0        1
       0.000      191.479      1.0        1
       0.000      212.128      1.0        1
       0.000      233.539      1.0        1
       0.000      255.703      1.0        1
       0.000      278.608      1.0        1
       0.000      302.233      1.0        1
       0.000      326.552      1.0        1
       0.000      351.530      1.0        1
       0.000      377.126      1.0        1
       0.000      403.289      1.0        1
       0.000      429.961      1.0        1
       0.000      457.076      1.0        1
       0.000      484.560      1.0        1
       0.000      512.330      1.0        1
       0.000      540.299      1.0        1
       0.000      568.368      1.0        1
       0.000      596.435      1.0        1
       0.000      624.391      1.0        1
       0.000      652.122      1.0        1
       0.000      679.510      1.0        1
       0.000      706.433      1.0        1
       0.000      732.765      1.0        1
       0.000      758.382      1.0        1
       0.000      783.157      1.0        1
       0.000      806.965      1.0        1
       0.000      829.680      1.0        1
       0.000      851.183      1.0        1
       0.000      871.357      1.0        1
       0.000      890.089      1.0        1
       0.000      907.274      1.0        1
       0.000      922.815      1.0        1
       0.000      936.620      1.0        1
       0.000      948.610      1.0        1
       0.000      958.713      1.0        1
       0.000      966.870      1.0        1
       0.000      973.031      1.0        1
       0.000      977.159      1.0        1
       0.000      979.229      2.0        1
       0.000      977.159      1.0        1
       0.000      973.031      1.0        1
       0.000      966.870      1.0        1
       0.000      958.713      1.0        1
       0.000      948.610      1.0        1
       0.000      936.620      1.0        1
       0.000      922.815      1.0        1
       0.000      907.274      1.0        1
       0.000      890.089      1.0        1
       0.000      871.357      1.0        1
       0.000      851.183      1.0        1
       0.000      829.680      1.0        1
       0.000      806.965      1.0        1
       0.000      783.157      1.0        1
       0.000      758.382      1.0        1
       0.000      732.765      1.0        1
       0.000      706.433      1.0        1
       0.000      679.510      1.0        1
       0.000      652.122      1.0        1
       0.000      624.391      1.0        1
       0.000      596.435      1.0        1
       0.000      568.368      1.0        1
       0.000      540.299      1.0        1
       0.000      512.330      1.0        1
       0.000      484.560      1.0        1
       0.000      457.076      1.0        1
       0.000      429.961      1.0        1
       0.000      403.289      1.0        1
       0.000      377.126      1.0        1
       0.000      351.530      1.0        1
       0.000      326.552      1.0        1
       0.000      302.233      1.0        1
       0.000      278.608      1.0        1
       0.000      255.703      1.0        1
       0.000      233.539      1.0        1
       0.000      212.128      1.0        1
       0.000      191.479      1.0        1
       0.000      171.591      1.0        1
       0.000      152.463      1.0        1
       0.000      134.087      1.0        1
       0.000      116.451      1.0        1
       0.000       99.541      1.0        1
       0.000       83.342      1.0        1
       0.000       67.834      1.0        1
       0.000       53.000      1.0        1
       0.000       38.821      1.0        1
       0.000       25.276      1.0        1
       0.000       12.349      1.0        1
       0.000        0.021      1.0        1
     180.000        9.723      1.0        1
     180.000       20.897      1.0        1
     180.000       31.513      1.0        1
     180.000       41.580      1.0        1
     180.000       51.106      1.0        1
     180.000       60.095      1.0        1
     180.000       68.552      1.0        1
     180.000       76.476      1.0        1
     180.000       83.867      1.0        1
     180.000       90.721      1.0        1
     180.000       97.036      1.0        1
     180.000      102.806      1.0        1
     180.000      108.026      1.0        1
     180.000      112.691      1.0        1
     180.000      116.794      1.0        1
     180.000      120.334      1.0        1
     180.000      123.305      1.0        1
     180.000      125.708      1.0        1
     180.000      127.543      1.0        1
     180.000      128.814      1.0        1
     180.000      129.527      1.0        1
     180.000      129.691      1.0        1
     180.000      129.321      1.0        1
     180.000      128.433      1.0        1
     180.000      127.047      1.0        1
     180.000      125.190      1.0        1
     180.000      122.888      1.0        1
     180.000      120.175      1.0        1
     180.000      117.088      1.0        1
     180.000      113.665      1.0        1
     180.000      109.951      1.0        1
     180.000      105.991      1.0        1
     180.000      101.834      1.0        1
     180.000       97.530      1.0        1
     180.000       93.132      1.0        1
     180.000       88.693      1.0        1
     180.000       84.267      1.0        1
     180.000       79.908      1.0        1
     180.000       75.667      1.0        1
     180.000       71.598      1.0        1
     180.000       67.748      1.0        1
     180.000       64.165      1.0        1
     180.000       60.893      1.0        1
     180.000       57.972      1.0        1
     180.000       55.436      1.0        1
     180.000       53.318      1.0        1
     180.000       51.643      1.0        1
     180.000       50.431      1.0        1
     180.000       49.699      1.0        1
     180.000       49.453      1.0        1
